t(ms),Vm(mV)
0.0,-50.528971354166664
0.01,-50.6072998046875
0.02,-50.614420572916664
0.030000000000000006,-50.714111328125
0.04,-50.785319010416664
0.05,-50.909423828125
0.06000000000000001,-51.073201497395836
0.07,-51.204427083333336
0.08,-51.435343424479164
0.09000000000000001,-51.587931315104164
0.1,-51.8707275390625
0.11,-52.0538330078125
0.12000000000000002,-52.356974283854164
0.13,-52.5787353515625
0.14,-52.882893880208336
0.15000000000000002,-53.175862630208336
0.16,-53.460693359375
0.17,-53.797403971354164
0.18000000000000002,-54.078165690104164
0.19,-54.453531901041664
0.2,-54.740397135416664
0.21000000000000002,-55.127970377604164
0.22,-55.427042643229164
0.23,-55.814615885416664
0.24000000000000005,-56.142171223958336
0.25,-56.5032958984375
0.26,-56.866455078125
0.27,-57.201131184895836
0.28,-57.596842447916664
0.29,-57.903035481770836
0.30000000000000004,-58.310953776041664
0.31,-58.611043294270836
0.32,-59.018961588541664
0.33000000000000007,-59.330240885416664
0.34,-59.70458984375
0.35000000000000003,-60.0433349609375
0.36000000000000004,-60.384114583333336
0.37000000000000005,-60.7452392578125
0.38,-61.037190755208336
0.39000000000000007,-61.426798502604164
0.4,-61.6943359375
0.41000000000000003,-62.0819091796875
0.42000000000000004,-62.349446614583336
0.43000000000000005,-62.701416015625
0.44,-62.992350260416664
0.45000000000000007,-63.310750325520836
0.46,-63.609822591145836
0.47000000000000003,-63.886515299479164
0.4800000000000001,-64.21407063802083
0.4900000000000001,-64.45414225260417
0.5,-64.78678385416667
0.51,-65.00651041666667
0.52,-65.33304850260417
0.5300000000000001,-65.557861328125
0.54,-65.84879557291667
0.55,-66.08174641927083
0.56,-66.32588704427083
0.5700000000000001,-66.60054524739583
0.58,-66.802978515625
0.5900000000000001,-67.07661946614583
0.6000000000000001,-67.2515869140625
0.6100000000000001,-67.529296875
0.62,-67.68900553385417
0.63,-67.9473876953125
0.64,-68.10811360677083
0.6500000000000001,-68.33394368489583
0.6600000000000001,-68.524169921875
0.67,-68.68387858072917
0.68,-68.902587890625
0.6900000000000001,-69.04296875
0.7000000000000001,-69.27693684895833
0.71,-69.384765625
0.7200000000000001,-69.59228515625
0.7300000000000001,-69.708251953125
0.7400000000000001,-69.9005126953125
0.75,-70.03275553385417
0.76,-70.17415364583333
0.77,-70.3277587890625
0.7800000000000001,-70.43253580729167
0.79,-70.60648600260417
0.8,-70.66853841145833
0.81,-70.8526611328125
0.8200000000000001,-70.91471354166667
0.8300000000000001,-71.08256022135417
0.8400000000000001,-71.15681966145833
0.8500000000000001,-71.2860107421875
0.8600000000000001,-71.38468424479167
0.8700000000000001,-71.47420247395833
0.88,-71.59627278645833
0.89,-71.64510091145833
0.9000000000000001,-71.78751627604167
0.9100000000000001,-71.81803385416667
0.92,-71.95231119791667
0.93,-71.98079427083333
0.9400000000000001,-72.0947265625
0.9500000000000001,-72.15677897135417
0.9600000000000002,-72.23409016927083
0.9700000000000001,-72.30936686197917
0.9800000000000002,-72.33988444010417
0.99,-72.454833984375
1.0,-72.467041015625
1.01,-72.57792154947917
1.02,-72.57588704427083
1.03,-72.67964680989583
1.04,-72.70100911458333
1.05,-72.76713053385417
1.0600000000000003,-72.81290690104167
1.07,-72.8424072265625
1.08,-72.91463216145833
1.09,-72.91361490885417
1.1,-73.00211588541667
1.11,-72.98075358072917
1.12,-73.0804443359375
1.1300000000000001,-73.05399576822917
1.1400000000000001,-73.1170654296875
1.1500000000000001,-73.11808268229167
1.16,-73.16182454427083
1.17,-73.19437662760417
1.1800000000000002,-73.187255859375
1.1900000000000002,-73.25032552083333
1.2000000000000002,-73.21980794270833
1.2100000000000002,-73.29813639322917
1.2200000000000002,-73.25948079427083
1.2300000000000002,-73.321533203125
1.24,-73.291015625
1.25,-73.33170572916667
1.26,-73.33272298177083
1.27,-73.3306884765625
1.28,-73.35713704427083
1.29,-73.33272298177083
1.3000000000000003,-73.37849934895833
1.3100000000000003,-73.32763671875
1.3200000000000003,-73.38663736979167
1.33,-73.33984375
1.34,-73.38358561197917
1.35,-73.34798177083333
1.36,-73.35713704427083
1.37,-73.36324055989583
1.3800000000000001,-73.333740234375
1.3900000000000001,-73.3673095703125
1.4000000000000001,-73.30423990885417
1.41,-73.36222330729167
1.42,-73.29915364583333
1.4300000000000002,-73.34187825520833
1.4400000000000002,-73.28898111979167
1.4500000000000002,-73.30525716145833
1.4600000000000002,-73.27067057291667
1.4700000000000002,-73.26456705729167
1.4800000000000002,-73.26761881510417
1.4900000000000002,-73.2086181640625
1.5,-73.24625651041667
1.51,-73.16691080729167
1.52,-73.199462890625
1.53,-73.13130696614583
1.54,-73.1475830078125
1.5500000000000003,-73.09163411458333
1.5600000000000003,-73.08247884114583
1.5700000000000003,-73.0499267578125
1.58,-72.99702962239583
1.59,-73.00618489583333
1.6,-72.918701171875
1.61,-72.93701171875
1.62,-72.84037272135417
1.6300000000000001,-72.857666015625
1.6400000000000001,-72.76713053385417
1.6500000000000001,-72.75797526041667
1.6600000000000001,-72.69083658854167
1.6700000000000002,-72.65625
1.6800000000000002,-72.63081868489583
1.6900000000000002,-72.54130045572917
1.7000000000000002,-72.54130045572917
1.7100000000000002,-72.44364420572917
1.7200000000000002,-72.454833984375
1.7300000000000002,-72.3541259765625
1.7400000000000002,-72.34598795572917
1.75,-72.26155598958333
1.76,-72.23612467447917
1.77,-72.18017578125
1.78,-72.10184733072917
1.79,-72.08251953125
1.8000000000000003,-71.97265625
1.8100000000000003,-71.97367350260417
1.8200000000000003,-71.8475341796875
1.8300000000000003,-71.83329264322917
1.84,-71.71427408854167
1.85,-71.68070475260417
1.86,-71.5850830078125
1.87,-71.49454752604167
1.8800000000000001,-71.42333984375
1.8900000000000001,-71.30635579427083
1.9000000000000001,-71.2371826171875
1.9100000000000001,-71.0662841796875
1.9200000000000004,-70.99202473958333
1.9300000000000002,-70.794677734375
1.9400000000000002,-70.6787109375
1.9500000000000002,-70.44169108072917
1.9600000000000004,-70.26265462239583
1.97,-70.00630696614583
1.98,-69.7113037109375
1.99,-69.39697265625
2.0,-68.96260579427083
2.0100000000000002,-68.5760498046875
2.02,-68.01656087239583
2.0300000000000002,-67.529296875
2.04,-66.87418619791667
2.0500000000000003,-66.27095540364583
2.06,-65.56599934895833
2.0700000000000003,-64.87630208333333
2.08,-64.15506998697917
2.0900000000000003,-63.386027018229164
2.1,-62.678019205729164
2.1100000000000003,-61.8743896484375
2.1200000000000006,-61.1785888671875
2.1300000000000003,-60.36376953125
2.14,-59.682210286458336
2.15,-58.909098307291664
2.16,-58.231608072916664
2.17,-57.529703776041664
2.18,-56.858317057291664
2.19,-56.243896484375
2.2,-55.591837565104164
2.21,-55.064900716145836
2.22,-54.45556640625
2.2300000000000004,-54.005940755208336
2.24,-53.4820556640625
2.2500000000000004,-53.076171875
2.2600000000000002,-52.637736002604164
2.2700000000000005,-52.296956380208336
2.2800000000000002,-51.961263020833336
2.2900000000000005,-51.648966471354164
2.3000000000000003,-51.418050130208336
2.31,-51.155598958333336
2.32,-51.035563151041664
2.33,-50.81787109375
2.34,-50.757853190104164
2.35,-50.633748372395836
2.3600000000000003,-50.617472330729164
2.37,-50.577799479166664
2.3800000000000003,-50.586954752604164
2.39,-50.644938151041664
2.4000000000000004,-50.677490234375
2.41,-50.803629557291664
2.4200000000000004,-50.8636474609375
2.43,-51.069132486979164
2.4400000000000004,-51.167805989583336
2.45,-51.398722330729164
2.4600000000000004,-51.564534505208336
2.47,-51.801554361979164
2.48,-52.0355224609375
2.49,-52.266438802083336
2.5,-52.5665283203125
2.5100000000000002,-52.796427408854164
2.52,-53.130086263020836
2.5300000000000002,-53.379313151041664
2.54,-53.742472330729164
2.5500000000000003,-54.007975260416664
2.56,-54.376220703125
2.5700000000000003,-54.681396484375
2.58,-55.029296875
2.5900000000000003,-55.382283528645836
2.6000000000000005,-55.701700846354164
2.6100000000000003,-56.099446614583336
2.6200000000000006,-56.3995361328125
2.6300000000000003,-56.809488932291664
2.6400000000000006,-57.108561197916664
2.65,-57.520548502604164
2.66,-57.840983072916664
2.67,-58.2122802734375
2.68,-58.562215169270836
2.69,-58.9080810546875
2.7,-59.290568033854164
2.71,-59.5977783203125
2.72,-59.991455078125
2.7300000000000004,-60.285441080729164
2.74,-60.687255859375
2.7500000000000004,-60.973103841145836
2.7600000000000002,-61.338297526041664
2.7700000000000005,-61.639404296875
2.7800000000000002,-61.985270182291664
2.7900000000000005,-62.317911783854164
2.8000000000000003,-62.598673502604164
2.8100000000000005,-62.953694661458336
2.82,-63.212076822916664
2.83,-63.566080729166664
2.84,-63.808186848958336
2.85,-64.14794921875
2.8600000000000003,-64.40327962239583
2.87,-64.715576171875
2.8800000000000003,-64.97802734375
2.89,-65.23844401041667
2.9000000000000004,-65.53853352864583
2.91,-65.75419108072917
2.9200000000000004,-66.064453125
2.93,-66.24857584635417
2.9400000000000004,-66.558837890625
2.95,-66.74906412760417
2.9600000000000004,-67.02779134114583
2.9700000000000006,-67.22005208333333
2.9800000000000004,-67.4560546875
2.99,-67.68086751302083
3.0,-67.87211100260417
3.0100000000000002,-68.11014811197917
3.02,-68.26070149739583
3.0300000000000002,-68.51094563802083
3.04,-68.64217122395833
3.0500000000000003,-68.88326009114583
3.06,-69.0155029296875
3.0700000000000003,-69.22607421875
3.08,-69.3878173828125
3.0900000000000003,-69.55057779947917
3.1000000000000005,-69.72147623697917
3.1100000000000003,-69.84049479166667
3.1200000000000006,-70.03682454427083
3.1300000000000003,-70.13346354166667
3.1400000000000006,-70.32877604166667
3.1500000000000004,-70.4071044921875
3.16,-70.58512369791667
3.17,-70.68277994791667
3.18,-70.81298828125
3.19,-70.93607584635417
3.2,-71.0357666015625
3.21,-71.18937174479167
3.22,-71.2493896484375
3.2300000000000004,-71.40401204427083
3.24,-71.45284016927083
3.2500000000000004,-71.60746256510417
3.2600000000000002,-71.65323893229167
3.2700000000000005,-71.771240234375
3.2800000000000002,-71.84346516927083
3.2900000000000005,-71.93196614583333
3.3000000000000003,-72.02250162760417
3.3100000000000005,-72.0672607421875
3.3200000000000003,-72.19746907552083
3.33,-72.21781412760417
3.3400000000000003,-72.34395345052083
3.35,-72.35209147135417
3.3600000000000003,-72.45992024739583
3.37,-72.4945068359375
3.3800000000000003,-72.57181803385417
3.39,-72.61962890625
3.4000000000000004,-72.662353515625
3.41,-72.74678548177083
3.4200000000000004,-72.7569580078125
3.43,-72.8607177734375
3.4400000000000004,-72.84342447916667
3.45,-72.94108072916667
3.4600000000000004,-72.93701171875
3.4700000000000006,-73.01534016927083
3.4800000000000004,-73.02652994791667
3.4900000000000007,-73.0621337890625
3.5,-73.10994466145833
3.5100000000000002,-73.11197916666667
3.52,-73.18013509114583
3.5300000000000002,-73.15572102864583
3.54,-73.24320475260417
3.5500000000000003,-73.20353190104167
3.56,-73.27880859375
3.5700000000000003,-73.25642903645833
3.58,-73.3001708984375
3.5900000000000003,-73.31644694010417
3.6000000000000005,-73.31949869791667
3.6100000000000003,-73.358154296875
3.6200000000000006,-73.3245849609375
3.6300000000000003,-73.38765462239583
3.6400000000000006,-73.34086100260417
3.6500000000000004,-73.40087890625
3.6600000000000006,-73.35917154947917
3.67,-73.40494791666667
3.68,-73.38358561197917
3.69,-73.39375813802083
3.7,-73.39884440104167
3.7100000000000004,-73.37748209635417
3.72,-73.42122395833333
3.7300000000000004,-73.35917154947917
3.74,-73.40799967447917
3.7500000000000004,-73.35917154947917
3.7600000000000002,-73.406982421875
3.7700000000000005,-73.35408528645833
3.7800000000000002,-73.37239583333333
3.7900000000000005,-73.35408528645833
3.8000000000000003,-73.3489990234375
3.8100000000000005,-73.3612060546875
3.8200000000000003,-73.31034342447917
3.8300000000000005,-73.33780924479167
3.8400000000000007,-73.27473958333333
3.85,-73.31441243489583
3.8600000000000003,-73.24422200520833
3.87,-73.2666015625
3.8800000000000003,-73.21879069010417
3.89,-73.21370442708333
3.9000000000000004,-73.193359375
3.91,-73.14453125
3.920000000000001,-73.15266927083333
3.93,-73.08756510416667
3.94,-73.11197916666667
3.95,-73.01127115885417
3.96,-73.03568522135417
3.9700000000000006,-72.95430501302083
3.98,-72.95430501302083
3.9900000000000007,-72.894287109375
4.0,-72.84749348958333
4.010000000000001,-72.833251953125
4.0200000000000005,-72.7569580078125
4.03,-72.75594075520833
4.04,-72.66642252604167
4.050000000000001,-72.67557779947917
4.0600000000000005,-72.57588704427083
4.07,-72.57486979166667
4.08,-72.48942057291667
4.090000000000001,-72.46500651041667
4.1000000000000005,-72.418212890625
4.11,-72.344970703125
4.12,-72.32564290364583
4.13,-72.235107421875
4.140000000000001,-72.2412109375
4.15,-72.1282958984375
4.16,-72.119140625
4.17,-72.0123291015625
4.180000000000001,-71.98893229166667
4.19,-71.91365559895833
4.2,-71.8414306640625
4.21,-71.78853352864583
4.220000000000001,-71.6888427734375
4.23,-71.66239420572917
4.240000000000001,-71.51896158854167
4.25,-71.484375
4.260000000000001,-71.337890625
4.2700000000000005,-71.28194173177083
4.28,-71.13749186197917
4.29,-71.01847330729167
4.3,-70.87504069010417
4.3100000000000005,-70.71024576822917
4.32,-70.5535888671875
4.33,-70.30131022135417
4.34,-70.11210123697917
4.3500000000000005,-69.78759765625
4.36,-69.52006022135417
4.370000000000001,-69.085693359375
4.38,-68.69913736979167
4.390000000000001,-68.18949381510417
4.4,-67.6605224609375
4.410000000000001,-67.0806884765625
4.42,-66.41337076822917
4.430000000000001,-65.78776041666667
4.44,-65.0390625
4.45,-64.37479654947917
4.460000000000001,-63.581339518229164
4.47,-62.877400716145836
4.48,-62.090047200520836
4.49,-61.356608072916664
4.500000000000001,-60.590616861979164
4.51,-59.843953450520836
4.5200000000000005,-59.14306640625
4.53,-58.3831787109375
4.540000000000001,-57.743326822916664
4.55,-57.007853190104164
4.5600000000000005,-56.428019205729164
4.57,-55.760701497395836
4.580000000000001,-55.208333333333336
4.590000000000001,-54.624430338541664
4.6000000000000005,-54.114786783854164
4.61,-53.636678059895836
4.62,-53.171793619791664
4.630000000000001,-52.790323893229164
4.64,-52.356974283854164
4.65,-52.080281575520836
4.66,-51.72119140625
4.670000000000001,-51.5045166015625
4.68,-51.234944661458336
4.69,-51.073201497395836
4.7,-50.901285807291664
4.710000000000001,-50.76904296875
4.720000000000001,-50.701904296875
4.73,-50.612386067708336
4.74,-50.635782877604164
4.750000000000001,-50.575764973958336
4.760000000000001,-50.664265950520836
4.7700000000000005,-50.67138671875
4.78,-50.7965087890625
4.79,-50.8758544921875
4.800000000000001,-51.023356119791664
4.81,-51.180013020833336
4.82,-51.338704427083336
4.83,-51.570638020833336
4.840000000000001,-51.732381184895836
4.8500000000000005,-52.021280924479164
4.86,-52.215576171875
4.87,-52.533976236979164
4.880000000000001,-52.752685546875
4.890000000000001,-53.065999348958336
4.9,-53.354899088541664
4.91,-53.6651611328125
4.920000000000001,-53.993733723958336
4.930000000000001,-54.2816162109375
4.94,-54.662068684895836
4.95,-54.950968424479164
4.96,-55.341593424479164
4.970000000000001,-55.633544921875
4.98,-56.0302734375
4.99,-56.349690755208336
5.0,-56.728108723958336
5.010000000000001,-57.080078125
5.0200000000000005,-57.421875
5.03,-57.814534505208336
5.04,-58.125813802083336
5.050000000000001,-58.5296630859375
5.0600000000000005,-58.8226318359375
5.07,-59.24072265625
5.08,-59.5458984375
5.090000000000001,-59.930419921875
5.1000000000000005,-60.245768229166664
5.110000000000001,-60.599772135416664
5.12,-60.956827799479164
5.13,-61.248779296875
5.140000000000001,-61.634318033854164
5.15,-61.899820963541664
5.16,-62.286376953125
5.17,-62.549845377604164
5.180000000000001,-62.910970052083336
5.19,-63.181559244791664
5.200000000000001,-63.506062825520836
5.21,-63.7939453125
5.220000000000001,-64.07877604166667
5.23,-64.3951416015625
5.240000000000001,-64.642333984375
5.25,-64.97090657552083
5.260000000000001,-65.18452962239583
5.2700000000000005,-65.50801595052083
5.280000000000001,-65.71756998697917
5.29,-66.01765950520833
5.3,-66.24348958333333
5.3100000000000005,-66.49576822916667
5.32,-66.75211588541667
5.330000000000001,-66.961669921875
5.34,-67.22819010416667
5.3500000000000005,-67.401123046875
5.36,-67.67578125
5.370000000000001,-67.82938639322917
5.38,-68.09285481770833
5.390000000000001,-68.25459798177083
5.4,-68.47432454427083
5.410000000000001,-68.65336100260417
5.42,-68.8323974609375
5.430000000000001,-69.03584798177083
5.44,-69.17521158854167
5.450000000000001,-69.39798990885417
5.460000000000001,-69.5068359375
5.47,-69.72554524739583
5.48,-69.82320149739583
5.49,-70.01953125
5.500000000000001,-70.1416015625
5.51,-70.29622395833333
5.5200000000000005,-70.43253580729167
5.53,-70.54036458333333
5.540000000000001,-70.703125
5.55,-70.7794189453125
5.5600000000000005,-70.95540364583333
5.57,-71.01338704427083
5.580000000000001,-71.17919921875
5.590000000000001,-71.25447591145833
5.6000000000000005,-71.3897705078125
5.61,-71.47013346354167
5.620000000000001,-71.5728759765625
5.630000000000001,-71.68477376302083
5.64,-71.7376708984375
5.65,-71.87093098958333
5.66,-71.9085693359375
5.670000000000001,-72.0428466796875
5.68,-72.06929524739583
5.69,-72.186279296875
5.7,-72.22798665364583
5.710000000000001,-72.32157389322917
5.720000000000001,-72.38871256510417
5.73,-72.43143717447917
5.74,-72.5250244140625
5.750000000000001,-72.54130045572917
5.760000000000001,-72.650146484375
5.7700000000000005,-72.65116373697917
5.78,-72.7569580078125
5.790000000000001,-72.76713053385417
5.800000000000001,-72.84749348958333
5.8100000000000005,-72.8790283203125
5.82,-72.91463216145833
5.83,-72.97770182291667
5.840000000000001,-72.9827880859375
5.8500000000000005,-73.06315104166667
5.86,-73.0438232421875
5.87,-73.13028971354167
5.880000000000001,-73.114013671875
5.890000000000001,-73.18827311197917
5.9,-73.17606608072917
5.91,-73.22794596354167
5.920000000000001,-73.248291015625
5.930000000000001,-73.25337727864583
5.940000000000001,-73.30525716145833
5.95,-73.27372233072917
5.960000000000001,-73.34696451822917
5.970000000000001,-73.31441243489583
5.98,-73.37849934895833
5.99,-73.34391276041667
6.0,-73.38358561197917
6.010000000000001,-73.37849934895833
6.0200000000000005,-73.38358561197917
6.03,-73.39884440104167
6.04,-73.38155110677083
6.050000000000001,-73.4283447265625
6.0600000000000005,-73.37849934895833
6.070000000000001,-73.42936197916667
6.08,-73.37849934895833
6.090000000000001,-73.43037923177083
6.1000000000000005,-73.3856201171875
6.110000000000001,-73.40291341145833
6.12,-73.39579264322917
6.130000000000001,-73.37646484375
6.140000000000001,-73.406982421875
6.15,-73.35713704427083
6.16,-73.39680989583333
6.17,-73.3306884765625
6.180000000000001,-73.38765462239583
6.19,-73.32356770833333
6.200000000000001,-73.34696451822917
6.21,-73.31136067708333
6.220000000000001,-73.30220540364583
6.23,-73.3001708984375
6.240000000000001,-73.2513427734375
6.25,-73.272705078125
6.260000000000001,-73.20454915364583
6.2700000000000005,-73.23811848958333
6.280000000000001,-73.15266927083333
6.29,-73.18013509114583
6.300000000000001,-73.1109619140625
6.3100000000000005,-73.11604817708333
6.32,-73.07637532552083
6.330000000000001,-73.02042643229167
6.34,-73.01534016927083
6.3500000000000005,-72.94413248697917
6.36,-72.96040852864583
6.370000000000001,-72.8546142578125
6.38,-72.8759765625
6.390000000000001,-72.77933756510417
6.4,-72.78238932291667
6.410000000000001,-72.71219889322917
6.42,-72.67354329427083
6.430000000000001,-72.637939453125
6.44,-72.57080078125
6.450000000000001,-72.55757649739583
6.460000000000001,-72.45992024739583
6.470000000000001,-72.46602376302083
6.48,-72.36531575520833
6.49,-72.36735026041667
6.500000000000001,-72.26969401041667
6.51,-72.25138346354167
6.5200000000000005,-72.18526204427083
6.53,-72.1221923828125
6.540000000000001,-72.08658854166667
6.550000000000001,-71.98994954427083
6.5600000000000005,-71.978759765625
6.57,-71.86177571614583
6.580000000000001,-71.84956868489583
6.590000000000001,-71.72342936197917
6.6000000000000005,-71.69392903645833
6.61,-71.5850830078125
6.620000000000001,-71.5118408203125
6.630000000000001,-71.41927083333333
6.640000000000001,-71.30940755208333
6.65,-71.22701009114583
6.66,-71.05712890625
6.670000000000001,-70.9686279296875
6.680000000000001,-70.758056640625
6.69,-70.63496907552083
6.7,-70.39794921875
6.710000000000001,-70.19856770833333
6.720000000000001,-69.90763346354167
6.73,-69.6044921875
6.74,-69.26066080729167
6.750000000000001,-68.80594889322917
6.760000000000001,-68.3746337890625
6.7700000000000005,-67.79886881510417
6.78,-67.28413899739583
6.790000000000001,-66.59952799479167
6.800000000000001,-65.98307291666667
6.810000000000001,-65.26285807291667
6.82,-64.56502278645833
6.83,-63.8275146484375
6.840000000000001,-63.063557942708336
6.8500000000000005,-62.342325846354164
6.86,-61.5447998046875
6.87,-60.851033528645836
6.880000000000001,-60.038248697916664
6.890000000000001,-59.367879231770836
6.9,-58.595784505208336
6.91,-57.939656575520836
6.920000000000001,-57.240804036458336
6.930000000000001,-56.586710611979164
6.940000000000001,-55.987548828125
6.95,-55.35888671875
6.960000000000001,-54.835001627604164
6.970000000000001,-54.254150390625
6.980000000000001,-53.812662760416664
6.99,-53.3050537109375
7.0,-52.935791015625
7.010000000000001,-52.500406901041664
7.0200000000000005,-52.186075846354164
7.03,-51.862589518229164
7.04,-51.575724283854164
7.050000000000001,-51.3641357421875
7.0600000000000005,-51.121012369791664
7.070000000000001,-51.0101318359375
7.08,-50.8209228515625
7.090000000000001,-50.780232747395836
7.1000000000000005,-50.652058919270836
7.110000000000001,-50.666300455729164
7.12,-50.636800130208336
7.130000000000001,-50.667317708333336
7.140000000000001,-50.721232096354164
7.150000000000001,-50.779215494791664
7.16,-50.921630859375
7.17,-51.0009765625
7.180000000000001,-51.204427083333336
7.19,-51.3214111328125
7.200000000000001,-51.564534505208336
7.21,-51.7333984375
7.220000000000001,-51.983642578125
7.23,-52.2186279296875
7.240000000000001,-52.469889322916664
7.25,-52.763875325520836
7.260000000000001,-53.0059814453125
7.2700000000000005,-53.350830078125
7.280000000000001,-53.603108723958336
7.29,-53.971354166666664
7.300000000000001,-54.2388916015625
7.3100000000000005,-54.613240559895836
7.320000000000001,-54.91943359375
7.330000000000001,-55.280558268229164
7.34,-55.626424153645836
7.3500000000000005,-55.949910481770836
7.36,-56.337483723958336
7.370000000000001,-56.65283203125
7.38,-57.06787109375
7.390000000000001,-57.359822591145836
7.4,-57.771809895833336
7.410000000000001,-58.085123697916664
7.420000000000001,-58.475748697916664
7.430000000000001,-58.809407552083336
7.44,-59.1583251953125
7.450000000000001,-59.532674153645836
7.460000000000001,-59.849039713541664
7.470000000000001,-60.24169921875
7.48,-60.533650716145836
7.490000000000001,-60.927327473958336
7.500000000000001,-61.208089192708336
7.51,-61.589558919270836
7.5200000000000005,-61.8743896484375
7.53,-62.215169270833336
7.540000000000001,-62.547810872395836
7.550000000000001,-62.842814127604164
7.5600000000000005,-63.179524739583336
7.57,-63.4307861328125
7.580000000000001,-63.789876302083336
7.590000000000001,-64.02791341145833
7.6000000000000005,-64.37276204427083
7.61,-64.61283365885417
7.620000000000001,-64.92716471354167
7.630000000000001,-65.18147786458333
7.640000000000001,-65.447998046875
7.65,-65.73079427083333
7.660000000000001,-65.95357259114583
7.670000000000001,-66.25569661458333
7.6800000000000015,-66.44490559895833
7.69,-66.7510986328125
7.7,-66.92403157552083
7.710000000000001,-67.20377604166667
7.720000000000001,-67.39705403645833
7.73,-67.63916015625
7.74,-67.84769694010417
7.750000000000001,-68.04097493489583
7.760000000000001,-68.27494303385417
7.7700000000000005,-68.42142740885417
7.78,-68.66963704427083
7.790000000000001,-68.79781087239583
7.800000000000001,-69.03788248697917
7.810000000000001,-69.1680908203125
7.82,-69.37459309895833
7.83,-69.52107747395833
7.840000000000002,-69.69807942708333
7.850000000000001,-69.8577880859375
7.86,-69.98494466145833
7.87,-70.166015625
7.88,-70.25960286458333
7.8900000000000015,-70.45694986979167
7.9,-70.53019205729167
7.91,-70.70515950520833
7.92,-70.7855224609375
7.9300000000000015,-70.93912760416667
7.940000000000001,-71.04390462239583
7.95,-71.15478515625
7.96,-71.28804524739583
7.9700000000000015,-71.35416666666667
7.980000000000001,-71.51285807291667
7.99,-71.551513671875
8.0,-71.70206705729167
8.010000000000002,-71.74580891927083
8.020000000000001,-71.8780517578125
8.030000000000001,-71.93400065104167
8.040000000000001,-72.02046712239583
8.05,-72.10795084635417
8.06,-72.16084798177083
8.07,-72.271728515625
8.08,-72.29512532552083
8.09,-72.41719563802083
8.100000000000001,-72.4273681640625
8.110000000000001,-72.5433349609375
8.120000000000001,-72.5616455078125
8.13,-72.64404296875
8.14,-72.69185384114583
8.15,-72.74068196614583
8.16,-72.81392415364583
8.17,-72.81595865885417
8.180000000000001,-72.9248046875
8.190000000000001,-72.91463216145833
8.200000000000001,-73.0010986328125
8.21,-72.99092610677083
8.22,-73.0743408203125
8.23,-73.08553059895833
8.24,-73.12113444010417
8.25,-73.16182454427083
8.26,-73.17097981770833
8.270000000000001,-73.236083984375
8.280000000000001,-73.211669921875
8.290000000000001,-73.29305013020833
8.3,-73.25337727864583
8.310000000000002,-73.33475748697917
8.32,-73.30525716145833
8.33,-73.35408528645833
8.34,-73.35917154947917
8.350000000000001,-73.36832682291667
8.360000000000001,-73.40494791666667
8.370000000000001,-73.37544759114583
8.38,-73.4283447265625
8.39,-73.38663736979167
8.4,-73.45072428385417
8.41,-73.3978271484375
8.42,-73.44563802083333
8.43,-73.419189453125
8.440000000000001,-73.44156901041667
8.450000000000001,-73.43851725260417
8.46,-73.40901692708333
8.47,-73.45072428385417
8.480000000000002,-73.40291341145833
8.49,-73.45072428385417
8.5,-73.38765462239583
8.51,-73.44258626302083
8.520000000000001,-73.388671875
8.530000000000001,-73.41410319010417
8.540000000000001,-73.38460286458333
8.55,-73.38358561197917
8.56,-73.3917236328125
8.570000000000002,-73.34696451822917
8.58,-73.36832682291667
8.59,-73.30525716145833
8.6,-73.35103352864583
8.610000000000001,-73.27779134114583
8.620000000000001,-73.31034342447917
8.63,-73.2452392578125
8.64,-73.24930826822917
8.650000000000002,-73.22184244791667
8.66,-73.18623860677083
8.67,-73.1781005859375
8.68,-73.11299641927083
8.690000000000001,-73.14249674479167
8.700000000000001,-73.04484049479167
8.71,-73.06315104166667
8.72,-72.979736328125
8.73,-72.98380533854167
8.740000000000002,-72.92582194010417
8.75,-72.88411458333333
8.76,-72.8546142578125
8.77,-72.78645833333333
8.780000000000001,-72.7874755859375
8.790000000000001,-72.69185384114583
8.8,-72.6959228515625
8.81,-72.59521484375
8.820000000000002,-72.60843912760417
8.830000000000002,-72.50773111979167
8.84,-72.49043782552083
8.85,-72.42940266927083
8.860000000000001,-72.37345377604167
8.870000000000001,-72.3480224609375
8.88,-72.25443522135417
8.89,-72.25138346354167
8.9,-72.13846842447917
8.910000000000002,-72.1466064453125
8.920000000000002,-72.02860514322917
8.93,-72.00419108072917
8.94,-71.91874186197917
8.950000000000001,-71.86381022135417
8.96,-71.79667154947917
8.97,-71.6949462890625
8.98,-71.6583251953125
8.990000000000002,-71.527099609375
9.000000000000002,-71.4874267578125
9.01,-71.33280436197917
9.02,-71.2738037109375
9.030000000000001,-71.1151123046875
9.040000000000001,-71.01033528645833
9.05,-70.8404541015625
9.06,-70.6634521484375
9.07,-70.501708984375
9.080000000000002,-70.24027506510417
9.090000000000002,-70.03173828125
9.1,-69.6685791015625
9.11,-69.384765625
9.120000000000001,-68.92598470052083
9.13,-68.50789388020833
9.14,-67.96061197916667
9.15,-67.4163818359375
9.160000000000002,-66.80908203125
9.170000000000002,-66.12447102864583
9.180000000000001,-65.47749837239583
9.19,-64.7216796875
9.200000000000001,-64.04622395833333
9.21,-63.24462890625
9.22,-62.549845377604164
9.23,-61.741129557291664
9.24,-61.027018229166664
9.250000000000002,-60.257975260416664
9.260000000000002,-59.519449869791664
9.27,-58.821614583333336
9.28,-58.083089192708336
9.290000000000001,-57.445271809895836
9.3,-56.731160481770836
9.31,-56.153361002604164
9.32,-55.504353841145836
9.330000000000002,-54.979451497395836
9.340000000000002,-54.395548502604164
9.350000000000001,-53.920491536458336
9.36,-53.447469075520836
9.370000000000001,-53.011067708333336
9.38,-52.642822265625
9.39,-52.237955729166664
9.4,-51.9683837890625
9.41,-51.631673177083336
9.420000000000002,-51.439412434895836
9.430000000000001,-51.178995768229164
9.440000000000001,-51.038614908854164
9.45,-50.876871744791664
9.46,-50.775146484375
9.47,-50.716145833333336
9.48,-50.6378173828125
9.49,-50.675455729166664
9.500000000000002,-50.6378173828125
9.510000000000002,-50.739542643229164
9.520000000000001,-50.757853190104164
9.530000000000001,-50.898234049479164
9.540000000000001,-50.982666015625
9.55,-51.157633463541664
9.56,-51.317342122395836
9.57,-51.490275065104164
9.58,-51.726277669270836
9.590000000000002,-51.904296875
9.600000000000001,-52.196248372395836
9.610000000000001,-52.392578125
9.62,-52.718098958333336
9.63,-52.9449462890625
9.64,-53.2745361328125
9.65,-53.553263346354164
9.66,-53.874715169270836
9.670000000000002,-54.205322265625
9.680000000000001,-54.5074462890625
9.690000000000001,-54.8675537109375
9.700000000000001,-55.170694986979164
9.71,-55.5755615234375
9.72,-55.8624267578125
9.73,-56.261189778645836
9.74,-56.5765380859375
9.75,-56.97021484375
9.760000000000002,-57.31201171875
9.770000000000001,-57.654825846354164
9.780000000000001,-58.037312825520836
9.790000000000001,-58.360799153645836
9.8,-58.762613932291664
9.81,-59.0576171875
9.82,-59.4696044921875
9.83,-59.770711263020836
9.840000000000002,-60.160319010416664
9.850000000000001,-60.475667317708336
9.860000000000001,-60.819498697916664
9.870000000000001,-61.170450846354164
9.88,-61.475626627604164
9.89,-61.844889322916664
9.9,-62.114461263020836
9.91,-62.495930989583336
9.92,-62.749226888020836
9.930000000000001,-63.116455078125
9.940000000000001,-63.374837239583336
9.950000000000001,-63.702392578125
9.96,-63.9862060546875
9.97,-64.27510579427083
9.98,-64.5782470703125
9.99,-64.82137044270833
10.0,-65.14790852864583
10.010000000000002,-65.36458333333333
10.020000000000001,-65.68196614583333
10.030000000000001,-65.887451171875
10.040000000000001,-66.18855794270833
10.050000000000002,-66.40116373697917
10.06,-66.6656494140625
10.07,-66.90470377604167
10.08,-67.11629231770833
10.09,-67.37874348958333
10.100000000000001,-67.5506591796875
10.110000000000001,-67.8253173828125
10.120000000000001,-67.97688802083333
10.13,-68.23221842447917
10.14,-68.3837890625
10.15,-68.60860188802083
10.16,-68.7713623046875
10.17,-68.95751953125
10.180000000000001,-69.16300455729167
10.190000000000001,-69.30643717447917
10.200000000000001,-69.51700846354167
10.21,-69.62788899739583
10.220000000000002,-69.83744303385417
10.23,-69.9432373046875
10.24,-70.12939453125
10.25,-70.24129231770833
10.26,-70.404052734375
10.270000000000001,-70.52714029947917
10.280000000000001,-70.64208984375
10.290000000000001,-70.79366048177083
10.3,-70.867919921875
10.310000000000002,-71.0479736328125
10.32,-71.10493977864583
10.33,-71.270751953125
10.34,-71.33585611979167
10.350000000000001,-71.4813232421875
10.360000000000001,-71.5545654296875
10.370000000000001,-71.65730794270833
10.38,-71.76106770833333
10.390000000000002,-71.82515462239583
10.400000000000002,-71.9512939453125
10.41,-71.97977701822917
10.42,-72.113037109375
10.43,-72.14253743489583
10.440000000000001,-72.27071126302083
10.450000000000001,-72.2991943359375
10.46,-72.393798828125
10.47,-72.45076497395833
10.480000000000002,-72.50467936197917
10.49,-72.59521484375
10.5,-72.6165771484375
10.51,-72.7203369140625
10.520000000000001,-72.723388671875
10.530000000000001,-72.8302001953125
10.540000000000001,-72.8271484375
10.55,-72.91259765625
10.560000000000002,-72.9400634765625
10.570000000000002,-72.9827880859375
10.58,-73.03365071614583
10.59,-73.04280598958333
10.6,-73.1231689453125
10.610000000000001,-73.10994466145833
10.620000000000001,-73.19234212239583
10.63,-73.15877278645833
10.64,-73.248291015625
10.650000000000002,-73.23201497395833
10.660000000000002,-73.28287760416667
10.67,-73.297119140625
10.68,-73.309326171875
10.690000000000001,-73.358154296875
10.700000000000001,-73.33882649739583
10.71,-73.40189615885417
10.72,-73.36018880208333
10.730000000000002,-73.4283447265625
10.740000000000002,-73.39375813802083
10.75,-73.44156901041667
10.76,-73.41817220052083
10.77,-73.44156901041667
10.780000000000001,-73.45072428385417
10.790000000000001,-73.43648274739583
10.8,-73.468017578125
10.81,-73.42529296875
10.820000000000002,-73.480224609375
10.830000000000002,-73.41410319010417
10.84,-73.47412109375
10.85,-73.42427571614583
10.860000000000001,-73.44868977864583
10.870000000000001,-73.43343098958333
10.88,-73.4161376953125
10.89,-73.43851725260417
10.900000000000002,-73.39680989583333
10.910000000000002,-73.43546549479167
10.920000000000002,-73.3673095703125
10.93,-73.41715494791667
10.94,-73.358154296875
10.950000000000001,-73.38663736979167
10.96,-73.33170572916667
10.97,-73.333740234375
10.98,-73.32051595052083
10.990000000000002,-73.2879638671875
11.000000000000002,-73.29813639322917
11.010000000000002,-73.22794596354167
11.02,-73.2574462890625
11.030000000000001,-73.18115234375
11.040000000000001,-73.20149739583333
11.05,-73.12520345052083
11.06,-73.13028971354167
11.070000000000002,-73.0865478515625
11.080000000000002,-73.05196126302083
11.090000000000002,-73.02347819010417
11.1,-72.95633951822917
11.11,-72.96651204427083
11.120000000000001,-72.87699381510417
11.13,-72.88614908854167
11.14,-72.78340657552083
11.15,-72.78951009114583
11.160000000000002,-72.7142333984375
11.170000000000002,-72.68778483072917
11.180000000000001,-72.6318359375
11.19,-72.57588704427083
11.200000000000001,-72.55757649739583
11.21,-72.46297200520833
11.22,-72.45890299479167
11.23,-72.36531575520833
11.240000000000002,-72.36836751302083
11.250000000000002,-72.26460774739583
11.260000000000002,-72.247314453125
11.270000000000001,-72.17000325520833
11.28,-72.12422688802083
11.290000000000001,-72.08353678385417
11.3,-71.97774251302083
11.31,-71.95841471354167
11.32,-71.8475341796875
11.330000000000002,-71.83634440104167
11.340000000000002,-71.7071533203125
11.350000000000001,-71.67765299479167
11.36,-71.55659993489583
11.370000000000001,-71.49658203125
11.38,-71.38773600260417
11.39,-71.27176920572917
11.4,-71.18733723958333
11.410000000000002,-71.014404296875
11.420000000000002,-70.9197998046875
11.430000000000001,-70.69193522135417
11.440000000000001,-70.56376139322917
11.45,-70.2972412109375
11.46,-70.09480794270833
11.47,-69.76826985677083
11.48,-69.43868001302083
11.49,-69.0673828125
11.500000000000002,-68.59232584635417
11.510000000000002,-68.12744140625
11.520000000000001,-67.51810709635417
11.530000000000001,-66.97794596354167
11.540000000000001,-66.27705891927083
11.55,-65.6524658203125
11.56,-64.9017333984375
11.57,-64.20389811197917
11.580000000000002,-63.453165690104164
11.590000000000002,-62.6922607421875
11.600000000000001,-61.9537353515625
11.610000000000001,-61.167399088541664
11.620000000000001,-60.467529296875
11.63,-59.672037760416664
11.64,-59.001668294270836
11.65,-58.238728841145836
11.66,-57.594807942708336
11.670000000000002,-56.910196940104164
11.680000000000001,-56.273396809895836
11.690000000000001,-55.670166015625
11.700000000000001,-55.066935221354164
11.71,-54.5623779296875
11.72,-53.997802734375
11.73,-53.575642903645836
11.74,-53.084309895833336
11.750000000000002,-52.738444010416664
11.760000000000002,-52.313232421875
11.770000000000001,-52.021280924479164
11.780000000000001,-51.715087890625
11.790000000000001,-51.456705729166664
11.8,-51.255289713541664
11.81,-51.032511393229164
11.82,-50.931803385416664
11.83,-50.763956705729164
11.840000000000002,-50.745646158854164
11.850000000000001,-50.632731119791664
11.860000000000001,-50.657145182291664
11.870000000000001,-50.641886393229164
11.880000000000003,-50.696818033854164
11.89,-50.7537841796875
11.9,-50.835164388020836
11.91,-50.982666015625
11.920000000000002,-51.076253255208336
11.930000000000001,-51.295979817708336
11.940000000000001,-51.4190673828125
11.950000000000001,-51.671346028645836
11.96,-51.848347981770836
11.97,-52.1209716796875
11.98,-52.341715494791664
11.99,-52.6123046875
12.0,-52.903238932291664
12.010000000000002,-53.16162109375
12.020000000000001,-53.501383463541664
12.030000000000001,-53.760782877604164
12.040000000000001,-54.142252604166664
12.050000000000002,-54.4097900390625
12.06,-54.791259765625
12.07,-55.086263020833336
12.08,-55.457560221354164
12.090000000000002,-55.803426106770836
12.100000000000001,-56.135050455729164
12.110000000000001,-56.520589192708336
12.120000000000001,-56.834920247395836
12.13,-57.243855794270836
12.140000000000002,-57.541910807291664
12.15,-57.950846354166664
12.16,-58.260091145833336
12.17,-58.656819661458336
12.180000000000001,-58.988444010416664
12.190000000000001,-59.346516927083336
12.200000000000001,-59.699503580729164
12.21,-60.033162434895836
12.220000000000002,-60.411580403645836
12.23,-60.698445638020836
12.24,-61.0992431640625
12.25,-61.370849609375
12.260000000000002,-61.754353841145836
12.270000000000001,-62.0330810546875
12.280000000000001,-62.384033203125
12.290000000000001,-62.687174479166664
12.3,-62.998453776041664
12.310000000000002,-63.3270263671875
12.32,-63.582356770833336
12.33,-63.926188151041664
12.34,-64.17032877604167
12.350000000000001,-64.5050048828125
12.360000000000001,-64.74100748697917
12.370000000000001,-65.05839029947917
12.38,-65.30558268229167
12.390000000000002,-65.582275390625
12.400000000000002,-65.84676106770833
12.41,-66.07869466145833
12.42,-66.36759440104167
12.430000000000001,-66.5618896484375
12.440000000000001,-66.86299641927083
12.450000000000001,-67.041015625
12.46,-67.31160481770833
12.47,-67.49471028645833
12.480000000000002,-67.75309244791667
12.490000000000002,-67.94331868489583
12.5,-68.13761393229167
12.51,-68.3624267578125
12.520000000000001,-68.52315266927083
12.530000000000001,-68.76017252604167
12.540000000000001,-68.88224283854167
12.55,-69.12434895833333
12.560000000000002,-69.24845377604167
12.570000000000002,-69.46004231770833
12.58,-69.586181640625
12.59,-69.7662353515625
12.600000000000001,-69.927978515625
12.610000000000001,-70.06327311197917
12.620000000000001,-70.2239990234375
12.63,-70.32368977864583
12.64,-70.51493326822917
12.650000000000002,-70.5841064453125
12.660000000000002,-70.76822916666667
12.67,-70.8404541015625
12.68,-70.99507649739583
12.690000000000001,-71.09476725260417
12.700000000000001,-71.21073404947917
12.71,-71.33076985677083
12.72,-71.41011555989583
12.730000000000002,-71.5576171875
12.740000000000002,-71.60746256510417
12.750000000000002,-71.75089518229167
12.76,-71.78955078125
12.770000000000001,-71.91975911458333
12.780000000000001,-71.966552734375
12.790000000000001,-72.0672607421875
12.8,-72.14558919270833
12.81,-72.20662434895833
12.820000000000002,-72.314453125
12.830000000000002,-72.33683268229167
12.84,-72.45686848958333
12.85,-72.46297200520833
12.860000000000001,-72.58199055989583
12.870000000000001,-72.59928385416667
12.88,-72.6837158203125
12.89,-72.723388671875
12.900000000000002,-72.78035481770833
12.910000000000002,-72.8485107421875
12.920000000000002,-72.8546142578125
12.93,-72.95023600260417
12.940000000000001,-72.94514973958333
12.950000000000001,-73.03670247395833
12.96,-73.02144368489583
12.97,-73.10791015625
12.98,-73.10892740885417
12.990000000000002,-73.16182454427083
13.000000000000002,-73.18318684895833
13.010000000000002,-73.20149739583333
13.02,-73.26253255208333
13.030000000000001,-73.24727376302083
13.040000000000001,-73.3184814453125
13.05,-73.27880859375
13.06,-73.36324055989583
13.070000000000002,-73.32967122395833
13.080000000000002,-73.38968912760417
13.090000000000002,-73.3795166015625
13.100000000000001,-73.39680989583333
13.110000000000001,-73.41715494791667
13.120000000000001,-73.40596516927083
13.13,-73.44767252604167
13.14,-73.40087890625
13.15,-73.4649658203125
13.160000000000002,-73.419189453125
13.170000000000002,-73.46293131510417
13.180000000000001,-73.42732747395833
13.19,-73.45784505208333
13.200000000000001,-73.44258626302083
13.21,-73.4283447265625
13.22,-73.4527587890625
13.23,-73.406982421875
13.240000000000002,-73.46394856770833
13.250000000000002,-73.394775390625
13.260000000000002,-73.4405517578125
13.270000000000001,-73.37849934895833
13.280000000000001,-73.41817220052083
13.290000000000001,-73.382568359375
13.3,-73.38460286458333
13.31,-73.3734130859375
13.32,-73.345947265625
13.330000000000002,-73.3612060546875
13.340000000000002,-73.29203287760417
13.350000000000001,-73.32865397135417
13.360000000000001,-73.2574462890625
13.370000000000001,-73.29813639322917
13.38,-73.223876953125
13.39,-73.2330322265625
13.4,-73.18929036458333
13.410000000000002,-73.16792805989583
13.420000000000002,-73.15572102864583
13.430000000000001,-73.08858235677083
13.440000000000001,-73.10587565104167
13.450000000000001,-73.01534016927083
13.46,-73.03873697916667
13.47,-72.9400634765625
13.48,-72.94820149739583
13.49,-72.882080078125
13.500000000000002,-72.8515625
13.510000000000002,-72.80782063802083
13.520000000000001,-72.74678548177083
13.530000000000001,-72.74068196614583
13.540000000000001,-72.6470947265625
13.55,-72.66133626302083
13.56,-72.54536946614583
13.57,-72.55859375
13.580000000000002,-72.46500651041667
13.590000000000002,-72.44873046875
13.600000000000001,-72.38362630208333
13.610000000000001,-72.33988444010417
13.620000000000003,-72.30021158854167
13.63,-72.21476236979167
13.64,-72.20662434895833
13.65,-72.09879557291667
13.66,-72.100830078125
13.670000000000002,-71.9818115234375
13.680000000000001,-71.96451822916667
13.690000000000001,-71.86686197916667
13.700000000000001,-71.82515462239583
13.71,-71.7559814453125
13.72,-71.661376953125
13.73,-71.6094970703125
13.74,-71.484375
13.750000000000002,-71.44368489583333
13.760000000000002,-71.2799072265625
13.770000000000001,-71.2249755859375
13.780000000000001,-71.0479736328125
13.790000000000003,-70.94319661458333
13.8,-70.7672119140625
13.81,-70.5810546875
13.82,-70.3857421875
13.83,-70.1141357421875
13.840000000000002,-69.8822021484375
13.850000000000001,-69.500732421875
13.860000000000001,-69.18233235677083
13.870000000000001,-68.68489583333333
13.880000000000003,-68.2525634765625
13.89,-67.669677734375
13.9,-67.09493001302083
13.91,-66.45100911458333
13.920000000000002,-65.7745361328125
13.930000000000001,-65.0970458984375
13.940000000000001,-64.3341064453125
13.950000000000001,-63.6444091796875
13.960000000000003,-62.837727864583336
13.97,-62.143961588541664
13.98,-61.333211263020836
13.99,-60.618082682291664
14.0,-59.856160481770836
14.010000000000002,-59.138997395833336
14.020000000000001,-58.427937825520836
14.030000000000001,-57.706705729166664
14.040000000000001,-57.081095377604164
14.050000000000002,-56.3873291015625
14.06,-55.821736653645836
14.07,-55.177815755208336
14.08,-54.676310221354164
14.090000000000002,-54.115804036458336
14.100000000000001,-53.664143880208336
14.110000000000001,-53.192138671875
14.120000000000001,-52.781168619791664
14.130000000000003,-52.4261474609375
14.140000000000002,-52.046712239583336
14.15,-51.796468098958336
14.16,-51.471964518229164
14.17,-51.305135091145836
14.180000000000001,-51.060994466145836
14.190000000000001,-50.947062174479164
14.200000000000001,-50.7904052734375
14.21,-50.712076822916664
14.220000000000002,-50.663248697916664
14.230000000000002,-50.617472330729164
14.24,-50.6561279296875
14.25,-50.6378173828125
14.260000000000002,-50.754801432291664
14.270000000000001,-50.785319010416664
14.280000000000001,-50.940958658854164
14.290000000000001,-51.0345458984375
14.300000000000002,-51.227823893229164
14.310000000000002,-51.383463541666664
14.32,-51.575724283854164
14.33,-51.811726888020836
14.34,-52.0111083984375
14.350000000000001,-52.312215169270836
14.360000000000001,-52.5146484375
14.370000000000001,-52.8411865234375
14.38,-53.068033854166664
14.390000000000002,-53.418986002604164
14.400000000000002,-53.6834716796875
14.41,-54.024251302083336
14.42,-54.346720377604164
14.430000000000001,-54.667154947916664
14.440000000000001,-55.029296875
14.450000000000001,-55.326334635416664
14.46,-55.7281494140625
14.470000000000002,-56.017049153645836
14.480000000000002,-56.429036458333336
14.490000000000002,-56.730143229166664
14.5,-57.124837239583336
14.51,-57.460530598958336
14.520000000000001,-57.8216552734375
14.530000000000001,-58.1939697265625
14.540000000000001,-58.5113525390625
14.55,-58.918253580729164
14.560000000000002,-59.214274088541664
14.570000000000002,-59.623209635416664
14.58,-59.913126627604164
14.59,-60.310872395833336
14.600000000000001,-60.616048177083336
14.610000000000001,-60.968017578125
14.620000000000001,-61.302693684895836
14.63,-61.616007486979164
14.640000000000002,-61.980183919270836
14.650000000000002,-62.253824869791664
14.660000000000002,-62.621053059895836
14.67,-62.877400716145836
14.68,-63.2476806640625
14.690000000000001,-63.493855794270836
14.700000000000001,-63.83056640625
14.71,-64.09505208333333
14.72,-64.3951416015625
14.730000000000002,-64.69217936197917
14.740000000000002,-64.94242350260417
14.750000000000002,-65.25065104166667
14.76,-65.46630859375
14.770000000000001,-65.79081217447917
14.780000000000001,-65.9820556640625
14.790000000000001,-66.29130045572917
14.8,-66.49169921875
14.810000000000002,-66.76737467447917
14.820000000000002,-66.9891357421875
14.830000000000002,-67.20987955729167
14.840000000000002,-67.4530029296875
14.85,-67.6422119140625
14.860000000000001,-67.90873209635417
14.870000000000001,-68.05013020833333
14.88,-68.30851236979167
14.89,-68.450927734375
14.900000000000002,-68.68693033854167
14.910000000000002,-68.84256998697917
14.920000000000002,-69.03483072916667
14.93,-69.21590169270833
14.940000000000001,-69.37255859375
14.950000000000001,-69.5709228515625
14.96,-69.67875162760417
14.97,-69.89339192708333
14.980000000000002,-69.9981689453125
14.990000000000002,-70.18636067708333
